Time [s],Temp. [°C],A1,A2,A3,A4,A5,A6,A7,A8,A9,A10,A11,A12,B1,B2,B3,B4,B5,B6,B7,B8,B9,B10,B11,B12,C1,C2,C3,C4,C5,C6,C7,C8,C9,C10,C11,C12,D1,D2,D3,D4,D5,D6,D7,D8,D9,D10,D11,D12,E1,E2,E3,E4,E5,E6,E7,E8,E9,E10,E11,E12,F1,F2,F3,F4,F5,F6,F7,F8,F9,F10,F11,F12,G1,G2,G3,G4,G5,G6,G7,G8,G9,G10,G11,G12,H1,H2,H3,H4,H5,H6,H7,H8,H9,H10,H11,H12
0,31.1,0.0432,0.055,0.0514,0.0512,0.0512,0.0515,0.0521,0.0507,0.0483,0.0502,0.0487,0.0494,0.0411,0.0608,0.0598,0.0572,0.0532,0.0542,0.057,0.0571,0.0618,0.0585,0.0609,0.0551,0.0577,0.0608,0.0544,0.0515,0.0548,0.05,0.0506,0.0571,0.0524,0.0522,0.0516,0.0476,0.04,0.0551,0.0525,0.0517,0.051,0.0518,0.049,0.0499,0.0514,0.0515,0.0513,0.0485,0.043,0.0667,0.0608,0.0581,0.0588,0.0554,0.0512,0.0542,0.054,0.0556,0.0515,0.0483,0.0419,0.0597,0.0547,0.0517,0.06,0.057,0.0513,0.0537,0.0534,0.053,0.0521,0.0511,0.051,0.0546,0.0639,0.0537,0.0637,0.053,0.0493,0.0506,0.0511,0.05,0.0496,0.0454,0.0405,0.0534,0.0523,0.0492,0.051,0.0491,0.0478,0.0483,0.046,0.0511,0.0471,0.0472
1200.035,37.1,0.0443,0.0612,0.0551,0.0543,0.0533,0.0521,0.0523,0.0502,0.0478,0.0493,0.0483,0.0493,0.0413,0.0641,0.0637,0.0592,0.0566,0.058,0.0535,0.0543,0.0592,0.0557,0.0537,0.0534,0.0404,0.0581,0.0512,0.0533,0.0564,0.0522,0.051,0.0571,0.0522,0.0541,0.0518,0.0482,0.0408,0.0576,0.0543,0.0541,0.0525,0.0529,0.0487,0.0497,0.0512,0.0515,0.0508,0.048,0.0409,0.0722,0.0641,0.0609,0.0643,0.0592,0.0521,0.0553,0.0538,0.0565,0.0533,0.0497,0.0426,0.0611,0.0564,0.054,0.0595,0.0585,0.0512,0.0533,0.0528,0.0525,0.0519,0.0514,0.0508,0.0576,0.0624,0.0533,0.0584,0.0551,0.0506,0.0517,0.0512,0.049,0.0485,0.0457,0.0413,0.0528,0.0521,0.0495,0.0521,0.0498,0.0478,0.0476,0.0455,0.0509,0.0467,0.0469
2400.064,37.2,0.044,0.0607,0.0547,0.0538,0.053,0.052,0.0574,0.05,0.0476,0.049,0.048,0.0489,0.0413,0.065,0.0642,0.0597,0.0575,0.0593,0.0539,0.0548,0.0594,0.0546,0.0508,0.0526,0.0402,0.0585,0.0515,0.0538,0.0572,0.0527,0.0516,0.0582,0.0532,0.055,0.0507,0.0477,0.0407,0.0579,0.0553,0.0547,0.0532,0.0542,0.0491,0.0505,0.0518,0.052,0.0498,0.0473,0.0407,0.0728,0.0647,0.0617,0.0648,0.0602,0.0527,0.0562,0.0553,0.0578,0.0531,0.049,0.0427,0.062,0.0597,0.0548,0.0606,0.0601,0.052,0.0543,0.0539,0.0522,0.0503,0.0508,0.0507,0.0595,0.0648,0.0556,0.057,0.0578,0.0504,0.0524,0.0498,0.0474,0.047,0.0453,0.0412,0.0524,0.0517,0.0489,0.0516,0.0506,0.0474,0.0472,0.0453,0.0505,0.0463,0.0466
3600.108,37.2,0.044,0.0599,0.054,0.0533,0.0525,0.0514,0.0579,0.0502,0.0474,0.0488,0.0476,0.0484,0.0414,0.0663,0.0657,0.0614,0.0596,0.0609,0.0549,0.0563,0.0598,0.0534,0.0499,0.0522,0.0402,0.0597,0.0523,0.0549,0.0583,0.0545,0.0524,0.0596,0.0547,0.0571,0.0501,0.0474,0.0408,0.0592,0.0562,0.0558,0.0548,0.056,0.0505,0.0525,0.0537,0.0536,0.0491,0.0472,0.0406,0.0742,0.066,0.0628,0.0659,0.0617,0.0542,0.0577,0.0574,0.0598,0.0526,0.0486,0.0428,0.0628,0.0605,0.0559,0.0625,0.0623,0.0531,0.0558,0.055,0.0511,0.0496,0.0504,0.0508,0.062,0.0676,0.0591,0.0611,0.0621,0.0496,0.0539,0.0487,0.047,0.0466,0.0453,0.0412,0.052,0.0514,0.0489,0.0515,0.052,0.0472,0.0471,0.0453,0.0504,0.0462,0.0463
4800.129,37.1,0.0438,0.0592,0.0537,0.0528,0.0522,0.0542,0.0515,0.0495,0.0472,0.0486,0.0475,0.0481,0.0414,0.0665,0.0663,0.0639,0.0623,0.0642,0.0556,0.0587,0.0589,0.053,0.0496,0.0517,0.0403,0.0653,0.0537,0.0565,0.06,0.057,0.0543,0.0617,0.0578,0.0584,0.0494,0.0472,0.0408,0.0609,0.0578,0.0574,0.0565,0.0588,0.0523,0.0549,0.0562,0.0558,0.0486,0.0469,0.0407,0.0751,0.0675,0.0643,0.0676,0.064,0.0564,0.0608,0.0601,0.0627,0.0518,0.0483,0.0428,0.0644,0.0618,0.0579,0.0651,0.0645,0.0548,0.0584,0.0563,0.0503,0.0493,0.0501,0.0508,0.0657,0.0717,0.0642,0.0679,0.0676,0.0486,0.0541,0.0482,0.0467,0.0464,0.0451,0.0411,0.0513,0.0512,0.0486,0.0513,0.0499,0.047,0.0469,0.0452,0.0502,0.0461,0.0461
6000.181,37.2,0.0438,0.0584,0.0532,0.0524,0.0517,0.0516,0.0508,0.0492,0.047,0.0484,0.0472,0.0478,0.0416,0.0686,0.0691,0.068,0.0662,0.0682,0.055,0.0623,0.0574,0.0525,0.0499,0.0514,0.0404,0.0636,0.0559,0.059,0.0622,0.0602,0.0565,0.0649,0.0608,0.0607,0.0491,0.0469,0.0407,0.0632,0.0602,0.06,0.0595,0.063,0.0539,0.0578,0.0592,0.0575,0.0483,0.0469,0.0408,0.0774,0.0699,0.0663,0.0701,0.0678,0.0595,0.0641,0.0649,0.0676,0.0507,0.0481,0.0428,0.0667,0.0642,0.0617,0.0681,0.0678,0.0561,0.0612,0.0564,0.0496,0.0489,0.05,0.0508,0.0705,0.0772,0.0706,0.0729,0.0726,0.0479,0.0533,0.0478,0.0465,0.0461,0.0451,0.041,0.051,0.0509,0.0484,0.0512,0.0526,0.047,0.0468,0.0452,0.0501,0.046,0.046
7200.21,37.3,0.0436,0.0579,0.0528,0.0521,0.0515,0.0535,0.0511,0.049,0.0469,0.0483,0.0471,0.0476,0.0416,0.0722,0.2238,0.0727,0.0722,0.0752,0.0528,0.0623,0.0569,0.0523,0.0504,0.0511,0.0404,0.0681,0.0583,0.0622,0.0658,0.065,0.0592,0.0688,0.0642,0.0597,0.0488,0.0469,0.0408,0.0666,0.0635,0.0632,0.0634,0.0681,0.0569,0.0614,0.0626,0.0578,0.0479,0.0469,0.0409,0.0808,0.0723,0.0697,0.0743,0.0737,0.0627,0.0696,0.0697,0.0724,0.0501,0.0478,0.0426,0.069,0.0674,0.0648,0.0721,0.073,0.0569,0.064,0.053,0.0494,0.0487,0.0498,0.0508,0.0753,0.0833,0.0742,0.0746,0.0822,0.0474,0.0536,0.0476,0.0464,0.0461,0.0451,0.041,0.0506,0.0508,0.0486,0.0506,0.0486,0.0469,0.0467,0.0451,0.05,0.0459,0.046
8400.241,37.2,0.0438,0.0571,0.0529,0.0514,0.0508,0.0537,0.05,0.0485,0.0467,0.0479,0.0468,0.0473,0.0417,0.0775,0.0784,0.0783,0.0806,0.0821,0.052,0.0582,0.0567,0.0523,0.0508,0.0507,0.0405,0.0734,0.0624,0.0668,0.071,0.07,0.0627,0.0737,0.0693,0.057,0.0486,0.0467,0.0409,0.0709,0.0683,0.0684,0.0684,0.0754,0.0596,0.0648,0.066,0.0551,0.0478,0.0467,0.0409,0.0859,0.0772,0.0743,0.0794,0.0821,0.067,0.0757,0.0768,0.0746,0.0497,0.0475,0.0424,0.0739,0.0714,0.0681,0.0763,0.0774,0.0564,0.0679,0.0513,0.049,0.0487,0.0495,0.0508,0.0826,0.095,0.0804,0.0884,0.0936,0.047,0.0499,0.0472,0.0462,0.0459,0.045,0.0411,0.0503,0.0503,0.0483,0.0506,0.0493,0.0468,0.0466,0.0451,0.05,0.0457,0.0458
9600.279,37.2,0.0438,0.0563,0.0519,0.0513,0.0508,0.0525,0.0518,0.0484,0.0465,0.0479,0.0465,0.047,0.0416,0.0861,0.0862,0.0851,0.0887,0.0909,0.0515,0.055,0.0564,0.0517,0.0506,0.0505,0.0405,0.0796,0.0677,0.0738,0.0782,0.0763,0.0652,0.0784,0.0741,0.0548,0.0484,0.0465,0.0408,0.0787,0.0756,0.0753,0.0757,0.0816,0.0618,0.0673,0.0723,0.0528,0.0478,0.0465,0.0409,0.0954,0.0849,0.0819,0.0869,0.0928,0.0715,0.0822,0.083,0.0682,0.0493,0.0473,0.0424,0.0809,0.0775,0.0726,0.0823,0.0838,0.0541,0.0674,0.0505,0.0489,0.0486,0.0493,0.0507,0.0855,0.1093,0.1199,0.1001,0.1455,0.0466,0.049,0.0469,0.046,0.0457,0.0449,0.0413,0.0506,0.0505,0.0483,0.0507,0.0509,0.0468,0.0466,0.045,0.0499,0.0456,0.0457
10800.296,37.2,0.0436,0.0559,0.0515,0.0509,0.0503,0.0516,0.0535,0.0481,0.0464,0.0477,0.0465,0.0469,0.0416,0.0957,0.1719,0.0909,0.0919,0.0988,0.0506,0.0536,0.056,0.051,0.0507,0.0501,0.0405,0.0949,0.075,0.0827,0.0887,0.0848,0.0683,0.0814,0.0788,0.0534,0.0483,0.0464,0.0408,0.0858,0.0836,0.0833,0.0852,0.0897,0.0652,0.0713,0.0773,0.0516,0.0476,0.0463,0.0409,0.107,0.0942,0.0917,0.0977,0.1052,0.0783,0.0884,0.0931,0.0615,0.0491,0.0472,0.0422,0.0896,0.084,0.0773,0.087,0.0891,0.0519,0.0643,0.05,0.0486,0.0484,0.0492,0.0507,0.0984,0.1104,0.1082,0.0864,0.1133,0.0464,0.048,0.0468,0.0459,0.0457,0.0448,0.0416,0.0499,0.0497,0.0479,0.0502,0.0483,0.0465,0.0463,0.045,0.0498,0.0456,0.0456
12000.352,37.3,0.0436,0.0552,0.051,0.0503,0.0499,0.0535,0.0555,0.048,0.0464,0.0476,0.0465,0.0467,0.0416,0.1099,0.1114,0.0958,0.1013,0.103,0.0501,0.0528,0.0558,0.0512,0.0505,0.05,0.0405,0.1027,0.0848,0.0941,0.102,0.0895,0.0704,0.0855,0.083,0.0529,0.0481,0.0463,0.0409,0.0987,0.096,0.0945,0.0964,0.0956,0.0669,0.0754,0.0785,0.051,0.0477,0.0463,0.0409,0.1219,0.1061,0.1038,0.1123,0.1226,0.0822,0.0961,0.0986,0.0578,0.0488,0.047,0.0422,0.1007,0.0946,0.0801,0.0915,0.0935,0.0507,0.0613,0.0495,0.0485,0.0484,0.0489,0.0508,0.1235,0.1761,0.0832,0.1163,0.1176,0.0462,0.0476,0.0465,0.0459,0.0456,0.0449,0.0428,0.0497,0.0496,0.0478,0.0503,0.0481,0.0466,0.0463,0.045,0.0499,0.0456,0.0456
13200.433,37.3,0.0436,0.0547,0.0507,0.0501,0.0497,0.0516,0.0593,0.0478,0.0462,0.0474,0.0463,0.0465,0.0416,0.1276,0.1309,0.0999,0.1045,0.1049,0.0497,0.0521,0.0557,0.0511,0.0507,0.0497,0.0406,0.1252,0.0983,0.1112,0.1203,0.0995,0.0726,0.0883,0.0824,0.0524,0.0485,0.0462,0.041,0.1187,0.1101,0.109,0.1115,0.1038,0.0678,0.0773,0.0791,0.0502,0.0475,0.0462,0.0412,0.1423,0.1241,0.1205,0.1305,0.1419,0.0851,0.0979,0.1006,0.0564,0.0488,0.0468,0.0421,0.1175,0.1081,0.0839,0.0944,0.0992,0.0502,0.0598,0.0493,0.0485,0.0484,0.0486,0.0508,0.168,0.2923,0.0699,0.1123,0.1182,0.0459,0.0473,0.0464,0.0458,0.0456,0.0448,0.0545,0.0495,0.0494,0.0475,0.0495,0.0492,0.0462,0.0461,0.045,0.0498,0.0455,0.0457
14400.508,37.3,0.0435,0.0543,0.0504,0.0498,0.0493,0.0512,0.0591,0.0483,0.0459,0.0472,0.0461,0.0464,0.0416,0.156,0.1681,0.0999,0.1028,0.107,0.0498,0.0517,0.0555,0.0508,0.0508,0.0494,0.0406,0.1442,0.1156,0.1356,0.1449,0.103,0.0722,0.0897,0.0822,0.0521,0.0482,0.0461,0.0411,0.1407,0.1311,0.1273,0.1311,0.1114,0.068,0.0784,0.0777,0.0501,0.0476,0.046,0.0412,0.1682,0.1466,0.143,0.1575,0.1601,0.0848,0.1029,0.1021,0.0553,0.0485,0.0466,0.0422,0.1376,0.1258,0.0842,0.0952,0.0982,0.0495,0.0573,0.049,0.0483,0.0482,0.0486,0.0508,0.3436,0.1997,0.0861,0.1057,0.1007,0.0458,0.0469,0.0463,0.0457,0.0456,0.0447,0.284,0.0493,0.0494,0.0477,0.0495,0.0477,0.0462,0.046,0.0449,0.0498,0.0455,0.0454
15600.574,37.3,0.0435,0.0538,0.05,0.0495,0.0491,0.0495,0.0573,0.0474,0.046,0.0471,0.046,0.0463,0.0416,0.1915,0.1953,0.0957,0.1025,0.1033,0.0495,0.0517,0.0554,0.0508,0.0506,0.0492,0.0408,0.1838,0.137,0.1606,0.174,0.1082,0.0698,0.0892,0.0806,0.0519,0.048,0.0461,0.0413,0.1695,0.159,0.1491,0.156,0.1193,0.0683,0.0789,0.0766,0.0499,0.0475,0.0461,0.0415,0.2004,0.1746,0.1692,0.1874,0.1878,0.0841,0.1001,0.1006,0.0545,0.0483,0.0464,0.0422,0.1633,0.1475,0.0848,0.0962,0.0995,0.0492,0.0565,0.049,0.0484,0.0483,0.0484,0.0508,0.4432,0.328,0.0743,0.097,0.1037,0.0457,0.0467,0.0462,0.0457,0.0455,0.0447,0.3506,0.0486,0.0487,0.0474,0.0493,0.048,0.0462,0.0461,0.0448,0.0498,0.0455,0.0454
16800.637,37.2,0.0436,0.0529,0.0497,0.0491,0.0488,0.0496,0.0592,0.0471,0.0458,0.0471,0.0459,0.0461,0.0416,0.2373,0.2375,0.1016,0.1006,0.1013,0.0493,0.0515,0.0553,0.0507,0.0509,0.049,0.0409,0.2221,0.1648,0.1989,0.2149,0.114,0.0691,0.0887,0.0817,0.0517,0.0481,0.0459,0.0416,0.2068,0.191,0.1803,0.184,0.1219,0.0669,0.0784,0.0756,0.0498,0.0475,0.046,0.0421,0.2407,0.2086,0.2038,0.2247,0.212,0.0825,0.1006,0.097,0.0539,0.0482,0.0464,0.0423,0.1967,0.1755,0.0844,0.0941,0.0987,0.0487,0.0557,0.0488,0.0482,0.0482,0.0484,0.0508,0.5696,0.4475,0.0606,0.0878,0.1002,0.0455,0.0467,0.0461,0.0458,0.0455,0.0447,0.3842,0.0488,0.0488,0.0473,0.0492,0.0503,0.0461,0.046,0.045,0.0498,0.0455,0.0454
18000.688,37.4,0.0436,0.0528,0.0496,0.0491,0.0488,0.0483,0.0596,0.0472,0.0458,0.0471,0.0459,0.0462,0.0416,0.2886,0.2913,0.0985,0.1021,0.1034,0.049,0.0509,0.0549,0.0502,0.0506,0.0488,0.0412,0.2607,0.1969,0.2415,0.2626,0.117,0.0711,0.0867,0.0783,0.0515,0.0488,0.046,0.0424,0.2509,0.2335,0.2144,0.2216,0.1297,0.0661,0.0781,0.0753,0.0496,0.0475,0.046,0.0433,0.2927,0.2534,0.2486,0.2724,0.2375,0.0812,0.0979,0.0953,0.0531,0.048,0.0463,0.0422,0.2372,0.2096,0.0835,0.0923,0.0949,0.0485,0.0546,0.0486,0.0481,0.0482,0.0482,0.0508,0.6285,0.5966,0.0731,0.0777,0.1089,0.0455,0.0465,0.0461,0.0456,0.0455,0.0447,0.4043,0.0484,0.0487,0.0475,0.0493,0.0477,0.0462,0.046,0.045,0.0497,0.0455,0.0454
19200.747,37.3,0.0435,0.0524,0.0493,0.0488,0.0484,0.0481,0.0576,0.047,0.0457,0.0469,0.0458,0.0461,0.0418,0.3496,0.3478,0.0948,0.0973,0.1026,0.0486,0.0507,0.0547,0.05,0.0508,0.0487,0.0417,0.3233,0.2355,0.2924,0.3179,0.1176,0.0708,0.0872,0.0775,0.0514,0.0483,0.046,0.0443,0.3047,0.2804,0.2572,0.2665,0.1353,0.0662,0.0763,0.0743,0.0495,0.0475,0.0459,0.0477,0.3456,0.3001,0.2951,0.3279,0.255,0.0793,0.0966,0.0919,0.0527,0.0481,0.0462,0.0424,0.281,0.2533,0.0819,0.091,0.094,0.0483,0.0542,0.0485,0.048,0.0482,0.048,0.0508,0.696,0.703,0.072,0.0703,0.0982,0.0452,0.0464,0.0461,0.0457,0.0455,0.0447,0.4217,0.0484,0.0486,0.0473,0.049,0.0476,0.0461,0.046,0.045,0.0498,0.0455,0.0456
20400.796,37.4,0.0435,0.0519,0.0491,0.0487,0.0482,0.0525,0.0572,0.0469,0.0457,0.0469,0.0458,0.046,0.0418,0.4191,0.4182,0.096,0.0988,0.0991,0.0483,0.0502,0.0546,0.0499,0.051,0.0484,0.0427,0.3851,0.2808,0.3571,0.3826,0.1206,0.0695,0.0855,0.0776,0.0513,0.0483,0.0459,0.0623,0.36,0.3297,0.3036,0.318,0.1464,0.0664,0.0755,0.0727,0.0493,0.0475,0.0459,0.1256,0.4063,0.3528,0.3508,0.3874,0.2865,0.0774,0.0932,0.0908,0.0523,0.048,0.0461,0.0425,0.3336,0.2963,0.0809,0.09,0.0926,0.0482,0.0535,0.0484,0.048,0.0483,0.0478,0.0508,0.7585,0.7689,0.0642,0.0602,0.091,0.0453,0.0462,0.0459,0.0457,0.0456,0.0447,0.4351,0.0481,0.048,0.047,0.0487,0.0471,0.0461,0.0459,0.0449,0.0498,0.0454,0.0455
21600.84,37.2,0.0434,0.0515,0.0488,0.0483,0.0479,0.0477,0.0535,0.0467,0.0456,0.0469,0.0458,0.0459,0.042,0.4929,0.4982,0.0917,0.096,0.0974,0.0482,0.05,0.0544,0.0497,0.0513,0.0482,0.0446,0.4534,0.3286,0.4224,0.4567,0.1274,0.0676,0.0854,0.0729,0.0513,0.0483,0.0459,0.1254,0.4325,0.3951,0.3662,0.3784,0.1572,0.0657,0.0744,0.0725,0.0491,0.0474,0.0458,0.1738,0.4752,0.418,0.4154,0.4474,0.3221,0.0768,0.0905,0.0891,0.0521,0.0478,0.0461,0.0427,0.3931,0.3526,0.0805,0.0871,0.0901,0.0478,0.053,0.0481,0.0478,0.048,0.0479,0.0508,0.8497,0.8531,0.0643,0.0635,0.0921,0.045,0.0461,0.0459,0.0457,0.0455,0.0446,0.446,0.0476,0.0479,0.0469,0.0486,0.0472,0.0459,0.0458,0.0448,0.0497,0.0455,0.0454
22800.878,37.1,0.0434,0.0511,0.0486,0.0482,0.0478,0.0477,0.0525,0.0472,0.0455,0.0468,0.0457,0.0459,0.0423,0.5809,0.5895,0.0909,0.0916,0.0947,0.0481,0.0499,0.0543,0.0496,0.0481,0.048,0.0508,0.5344,0.3839,0.5014,0.5412,0.1322,0.0672,0.0839,0.0733,0.051,0.0483,0.0459,0.1641,0.5082,0.4649,0.429,0.4482,0.1728,0.0648,0.0741,0.07,0.049,0.0474,0.0458,0.2,0.55,0.4865,0.4825,0.5228,0.3586,0.0743,0.0913,0.0872,0.0517,0.0478,0.0461,0.0431,0.4642,0.4147,0.08,0.0858,0.0891,0.0478,0.0525,0.0481,0.048,0.0482,0.0477,0.0507,0.9447,0.9477,0.0664,0.0626,0.0766,0.0449,0.0461,0.0458,0.0456,0.0456,0.0446,0.452,0.0479,0.048,0.0471,0.0487,0.0473,0.046,0.0459,0.0449,0.0498,0.0454,0.0454
24000.914,37.3,0.0433,0.0508,0.0484,0.0481,0.0478,0.0474,0.0474,0.0466,0.0454,0.0467,0.0457,0.0458,0.0428,0.6568,0.6612,0.0871,0.0902,0.0918,0.0478,0.0494,0.0541,0.0495,0.0511,0.048,0.1211,0.6264,0.4509,0.5814,0.6136,0.1402,0.0657,0.0825,0.0715,0.051,0.0482,0.0459,0.1894,0.5873,0.5423,0.5019,0.5225,0.1907,0.0629,0.0723,0.0692,0.049,0.0475,0.0457,0.2154,0.6211,0.5568,0.5452,0.581,0.4099,0.0733,0.0873,0.0857,0.0515,0.0478,0.0459,0.0436,0.5386,0.4802,0.0781,0.0853,0.0871,0.0476,0.0523,0.0481,0.0479,0.0482,0.0476,0.0508,1.0185,1.0415,0.0662,0.0737,0.0885,0.0448,0.0459,0.0457,0.0457,0.0456,0.0446,0.4559,0.0481,0.0482,0.0471,0.0488,0.0473,0.0459,0.0459,0.0449,0.0497,0.0455,0.0455
25200.95,37.2,0.0433,0.0504,0.0483,0.0478,0.0475,0.0473,0.0472,0.0465,0.0454,0.0466,0.0456,0.0459,0.0437,0.7145,0.7409,0.0886,0.0895,0.0912,0.0477,0.0497,0.0541,0.0493,0.0481,0.0479,0.1415,0.671,0.4955,0.646,0.6865,0.149,0.0666,0.081,0.0714,0.0508,0.0483,0.0459,0.2081,0.6496,0.6098,0.5587,0.5813,0.2165,0.0625,0.0714,0.0682,0.0489,0.0475,0.0457,0.2278,0.6709,0.6171,0.6074,0.6371,0.4635,0.0725,0.0877,0.0836,0.0514,0.0477,0.0459,0.0447,0.5969,0.5499,0.076,0.083,0.0842,0.0475,0.0519,0.0481,0.0478,0.0483,0.0476,0.0508,1.0915,1.1145,0.0643,0.0841,0.0816,0.0449,0.0459,0.0457,0.0456,0.0456,0.0445,0.4597,0.048,0.0481,0.047,0.0486,0.0472,0.0459,0.0459,0.0449,0.0497,0.0456,0.0455
26400.981,37.2,0.0433,0.0501,0.048,0.0476,0.0472,0.0472,0.047,0.0572,0.0452,0.0465,0.0456,0.0458,0.0454,0.7465,0.7912,0.0848,0.0883,0.0879,0.0476,0.0491,0.0539,0.0494,0.0479,0.0477,0.1652,0.7193,0.5279,0.6783,0.7156,0.1617,0.064,0.0799,0.0697,0.0507,0.0483,0.0458,0.2225,0.6985,0.6725,0.6173,0.6264,0.2526,0.0619,0.069,0.0666,0.0487,0.0475,0.0457,0.2394,0.7045,0.6612,0.6383,0.6688,0.5053,0.0723,0.0847,0.0805,0.051,0.0476,0.0457,0.0466,0.6479,0.6121,0.0756,0.0825,0.0839,0.0473,0.0518,0.048,0.0478,0.0481,0.0474,0.0507,1.1392,1.1806,0.0612,0.0686,0.0796,0.0446,0.0458,0.0457,0.0456,0.0456,0.0445,0.4632,0.0478,0.0479,0.0469,0.0484,0.0471,0.0459,0.0458,0.0449,0.0498,0.0455,0.0455
27601.009,37.2,0.0433,0.0499,0.0479,0.0475,0.0472,0.0471,0.0469,0.0464,0.0453,0.0466,0.0456,0.0458,0.049,0.7735,0.8096,0.0841,0.0874,0.0893,0.0474,0.049,0.0539,0.0492,0.0478,0.0476,0.1832,0.7646,0.5623,0.7011,0.745,0.1732,0.0638,0.079,0.0695,0.0507,0.0483,0.0459,0.2337,0.7377,0.7113,0.651,0.6677,0.2915,0.0608,0.0698,0.0654,0.0487,0.0476,0.0457,0.2528,0.7691,0.6905,0.6741,0.7178,0.5476,0.0696,0.0836,0.0792,0.0508,0.0476,0.0458,0.0514,0.6835,0.6553,0.0741,0.0816,0.0829,0.0475,0.0516,0.0479,0.0479,0.0483,0.0474,0.0508,1.1925,1.2312,0.0654,0.0762,0.0704,0.0447,0.0458,0.0457,0.0456,0.0456,0.0445,0.4649,0.0476,0.0476,0.047,0.0484,0.0472,0.0459,0.0459,0.045,0.0498,0.0456,0.0455
28801.052,37.2,0.0433,0.0496,0.0477,0.0473,0.0471,0.0501,0.0492,0.0463,0.0453,0.0464,0.0456,0.0457,0.0915,0.7973,0.8269,0.0824,0.0846,0.0857,0.0471,0.0488,0.0538,0.0491,0.0478,0.0476,0.1997,0.7905,0.5944,0.7315,0.7775,0.1978,0.063,0.078,0.0675,0.0505,0.0484,0.0459,0.2463,0.7736,0.7475,0.6884,0.7063,0.3389,0.06,0.0675,0.0644,0.0487,0.0477,0.0457,0.266,0.8079,0.7392,0.7198,0.7566,0.5829,0.0694,0.082,0.0789,0.0506,0.0476,0.0457,0.1687,0.7273,0.6914,0.0737,0.0801,0.0817,0.0471,0.051,0.0478,0.0478,0.0487,0.0474,0.0508,1.2426,1.2853,0.0618,0.0576,0.0695,0.0446,0.0458,0.0457,0.0456,0.0457,0.0446,0.4675,0.0476,0.0478,0.047,0.0486,0.0473,0.046,0.0459,0.045,0.0498,0.0456,0.0455
30001.072,37.2,0.0432,0.0492,0.0476,0.0473,0.047,0.0469,0.0467,0.0462,0.0452,0.0463,0.0456,0.0458,0.1435,0.8432,0.8931,0.0809,0.0839,0.0819,0.0473,0.0488,0.0538,0.0491,0.0479,0.0474,0.2149,0.7925,0.6421,0.7713,0.8042,0.2267,0.0627,0.077,0.0668,0.0504,0.0483,0.0458,0.258,0.7837,0.7772,0.718,0.728,0.3914,0.0592,0.0667,0.0642,0.0486,0.0476,0.0457,0.2777,0.8393,0.7921,0.7624,0.7915,0.6324,0.0684,0.0797,0.0779,0.0502,0.0476,0.0456,0.2576,0.7672,0.7233,0.0726,0.0795,0.0805,0.0469,0.0509,0.0477,0.0478,0.0482,0.0474,0.0508,1.286,1.3281,0.0554,0.0751,0.071,0.0445,0.0456,0.0456,0.0457,0.0457,0.0444,0.4698,0.0478,0.048,0.0469,0.0483,0.0471,0.0459,0.0459,0.045,0.0498,0.0455,0.0455
31201.094,37.2,0.0433,0.0489,0.0474,0.047,0.0468,0.0479,0.047,0.0462,0.0453,0.0464,0.0455,0.0457,0.185,0.8723,0.924,0.0812,0.0824,0.0815,0.0471,0.0488,0.0537,0.0491,0.0479,0.0474,0.2268,0.8467,0.6719,0.8224,0.8441,0.2634,0.0605,0.0746,0.066,0.0504,0.0484,0.0458,0.2676,0.8491,0.8003,0.7336,0.761,0.4509,0.0583,0.0657,0.0634,0.0486,0.0478,0.0457,0.287,0.867,0.8225,0.7921,0.825,0.6675,0.0661,0.0795,0.0757,0.0499,0.0476,0.0456,0.3178,0.8131,0.7924,0.0714,0.0796,0.0797,0.0469,0.0508,0.0478,0.0478,0.0482,0.0474,0.0508,1.3217,1.37,0.0559,0.0645,0.0656,0.0445,0.0455,0.0456,0.0456,0.0457,0.0445,0.473,0.0479,0.048,0.047,0.0485,0.0472,0.046,0.0459,0.0451,0.0498,0.0457,0.0456
32401.118,37.3,0.0434,0.0488,0.0473,0.047,0.0467,0.0467,0.0466,0.0478,0.0452,0.0463,0.0455,0.0457,0.2192,0.9047,0.9567,0.0804,0.0806,0.0815,0.0469,0.0485,0.0535,0.049,0.0478,0.0473,0.2382,0.8805,0.6986,0.8566,0.8713,0.3075,0.0607,0.0746,0.0654,0.0503,0.0484,0.0459,0.2769,0.8807,0.8278,0.7834,0.7814,0.4936,0.0577,0.0643,0.0625,0.0485,0.0478,0.0458,0.2951,0.8954,0.8524,0.8161,0.8516,0.6992,0.066,0.0767,0.0751,0.0499,0.0477,0.0455,0.3563,0.8337,0.8105,0.0708,0.0785,0.0791,0.0469,0.0506,0.0478,0.0478,0.0483,0.0473,0.0507,1.3564,1.4037,0.0524,0.0649,0.0639,0.0444,0.0455,0.0457,0.0456,0.0457,0.0445,0.4748,0.048,0.0478,0.047,0.0486,0.0471,0.046,0.0461,0.0452,0.0499,0.0456,0.0455
33601.15,37.2,0.0435,0.0485,0.0472,0.0469,0.0466,0.0484,0.0466,0.0462,0.0452,0.0463,0.0456,0.0457,0.2435,0.9547,0.9884,0.0781,0.08,0.0823,0.0467,0.0484,0.0536,0.0488,0.0478,0.0472,0.2471,0.9094,0.7076,0.8764,0.8945,0.3545,0.0597,0.0727,0.0644,0.0502,0.0484,0.0459,0.2849,0.895,0.8896,0.8064,0.8291,0.5202,0.0577,0.0639,0.062,0.0483,0.0477,0.0458,0.3018,0.9188,0.8808,0.8421,0.8773,0.731,0.0648,0.0752,0.0741,0.0496,0.0476,0.0456,0.3845,0.8653,0.8502,0.0699,0.0771,0.076,0.0466,0.0503,0.0477,0.0477,0.0483,0.0472,0.0508,1.3886,1.4346,0.0507,0.0522,0.0609,0.0444,0.0456,0.0456,0.0457,0.0458,0.0446,0.4779,0.0477,0.0477,0.0468,0.0483,0.0471,0.046,0.0459,0.0451,0.0499,0.0457,0.0455
34801.191,37.2,0.0436,0.0483,0.0472,0.0467,0.0464,0.0466,0.0464,0.0461,0.0451,0.0462,0.0455,0.0457,0.263,0.9684,1.0148,0.0779,0.0775,0.0777,0.0468,0.0483,0.0535,0.0489,0.0479,0.0472,0.2574,0.9343,0.7331,0.9015,0.9125,0.4001,0.0592,0.0722,0.0627,0.0501,0.0484,0.0459,0.2934,0.9235,0.9243,0.8419,0.8417,0.5599,0.0573,0.0624,0.0611,0.0484,0.0479,0.0458,0.3096,0.9411,0.9118,0.8696,0.9016,0.7714,0.064,0.074,0.0724,0.0494,0.0476,0.0455,0.4068,0.8879,0.8727,0.0691,0.0772,0.0765,0.0466,0.0507,0.0476,0.0479,0.0484,0.0472,0.0508,1.4106,1.4578,0.0537,0.062,0.0602,0.0443,0.0455,0.0456,0.0456,0.0458,0.0447,0.4799,0.0483,0.0482,0.0471,0.0487,0.0474,0.0461,0.0461,0.0451,0.0499,0.0457,0.0455
36001.22,37.3,0.0439,0.0481,0.047,0.0467,0.0464,0.0465,0.0464,0.046,0.0452,0.0463,0.0456,0.0458,0.2804,0.9917,1.0332,0.0756,0.0777,0.0768,0.0467,0.0484,0.0536,0.0489,0.0479,0.0471,0.2677,0.9585,0.7405,0.9199,0.9434,0.4279,0.0584,0.0705,0.0625,0.0502,0.0485,0.0459,0.3024,0.9425,0.9402,0.8731,0.8769,0.5948,0.0562,0.0622,0.0602,0.0483,0.0479,0.0458,0.3178,0.9588,0.9234,0.8892,0.9285,0.7993,0.0629,0.0725,0.071,0.0494,0.0476,0.0455,0.4239,0.9044,0.8957,0.0681,0.0756,0.0755,0.0466,0.0502,0.0478,0.0478,0.0485,0.0473,0.0508,1.4295,1.479,0.0534,0.052,0.0602,0.0444,0.0454,0.0456,0.0457,0.0459,0.0447,0.483,0.048,0.0482,0.0472,0.0485,0.0473,0.0461,0.046,0.0452,0.0499,0.0458,0.0457
37201.239,37.2,0.044,0.048,0.0469,0.0466,0.0464,0.0464,0.0464,0.0461,0.0451,0.0462,0.0455,0.0457,0.2934,1.0048,1.0511,0.0755,0.0761,0.0759,0.0465,0.0481,0.0533,0.0487,0.0478,0.047,0.2759,0.985,0.7714,0.9361,0.9581,0.4596,0.058,0.07,0.0625,0.0501,0.0485,0.0459,0.3099,0.9555,0.9518,0.9076,0.9048,0.6302,0.0553,0.0612,0.0598,0.0483,0.0479,0.0459,0.3234,0.9748,0.9434,0.904,0.9403,0.8128,0.0615,0.0703,0.0697,0.0493,0.0474,0.0455,0.4384,0.9206,0.9124,0.0676,0.075,0.0749,0.0467,0.05,0.0476,0.0478,0.0484,0.0472,0.0508,1.4468,1.4929,0.055,0.0525,0.0574,0.0442,0.0453,0.0455,0.0457,0.0459,0.0447,0.4853,0.048,0.0481,0.0471,0.0486,0.0475,0.0462,0.0461,0.0453,0.0499,0.0458,0.0456
38401.283,37.2,0.0444,0.0477,0.0467,0.0464,0.0462,0.0463,0.0462,0.0459,0.045,0.0461,0.0455,0.0457,0.301,1.0237,1.0633,0.0748,0.0767,0.0752,0.0464,0.0481,0.0532,0.0487,0.048,0.0469,0.2794,1.0119,0.7902,0.9599,0.9882,0.4939,0.0571,0.0693,0.0605,0.0499,0.0481,0.0458,0.3136,0.9812,0.9785,0.9262,0.9251,0.6624,0.055,0.0608,0.0592,0.0483,0.048,0.0458,0.3273,0.9995,0.9688,0.9334,0.9729,0.8544,0.0616,0.0696,0.0691,0.0491,0.0474,0.0454,0.4499,0.9443,0.9344,0.0677,0.0746,0.0727,0.0464,0.0501,0.0476,0.0479,0.0485,0.0472,0.0508,1.4729,1.5127,0.0499,0.0629,0.0575,0.0441,0.0453,0.0455,0.0458,0.0459,0.0447,0.4876,0.0479,0.0485,0.0474,0.0488,0.0475,0.0462,0.0462,0.0452,0.0499,0.0459,0.0457
39601.306,37.2,0.0448,0.0475,0.0467,0.0464,0.0462,0.0463,0.0462,0.046,0.045,0.0462,0.0454,0.0458,0.3096,1.0296,1.0765,0.0731,0.0745,0.0745,0.0465,0.048,0.0532,0.0486,0.048,0.0468,0.2848,0.966,0.8345,0.9762,0.9972,0.5302,0.0566,0.0677,0.06,0.0499,0.0479,0.0458,0.3177,0.9906,0.9943,0.936,0.9389,0.6975,0.0553,0.0601,0.059,0.0482,0.0479,0.0458,0.331,1.0086,0.9839,0.9439,0.9775,0.8761,0.0606,0.0686,0.068,0.0491,0.0474,0.0453,0.4583,0.9566,0.9525,0.0662,0.0736,0.0731,0.0465,0.0498,0.0475,0.0478,0.0485,0.0472,0.0508,1.4876,1.5272,0.0506,0.0509,0.058,0.0442,0.0453,0.0456,0.0458,0.046,0.0449,0.488,0.0476,0.0481,0.0472,0.0487,0.0475,0.0463,0.0462,0.0452,0.05,0.0459,0.0456
40801.341,37.2,0.0455,0.0474,0.0466,0.0463,0.0462,0.0462,0.0462,0.0463,0.045,0.0462,0.0454,0.0458,0.3141,1.0517,1.0924,0.0731,0.0756,0.0731,0.0465,0.0481,0.0531,0.0487,0.0479,0.0468,0.2875,1.0238,0.8441,1.0024,1.0263,0.5743,0.0563,0.0676,0.0601,0.0499,0.048,0.0458,0.3204,1.0069,1.0093,0.9586,0.9572,0.7306,0.0546,0.06,0.0588,0.0483,0.0481,0.0458,0.333,1.0247,0.9964,0.9633,1.0083,0.9042,0.06,0.0668,0.0668,0.049,0.0474,0.0454,0.4665,0.972,0.9671,0.0657,0.0734,0.0718,0.0465,0.0502,0.0475,0.0479,0.0486,0.0472,0.0508,1.5014,1.5405,0.0501,0.0623,0.057,0.0442,0.0453,0.0456,0.0459,0.0461,0.045,0.4889,0.0473,0.0478,0.0473,0.0488,0.0476,0.0464,0.0462,0.0453,0.05,0.0459,0.0457
42001.359,37.2,0.0464,0.0473,0.0466,0.0463,0.0461,0.0462,0.0463,0.0459,0.0451,0.0461,0.0455,0.0458,0.3228,1.0597,1.1125,0.0723,0.0734,0.0743,0.0465,0.048,0.0532,0.0488,0.048,0.0468,0.294,1.0457,0.8629,1.0181,1.0452,0.6066,0.056,0.067,0.0593,0.0501,0.0481,0.0459,0.3255,1.0119,1.0187,0.9724,0.9659,0.7453,0.0544,0.0596,0.0576,0.0483,0.0481,0.0459,0.3371,1.0405,1.0164,0.9835,1.0242,0.921,0.0594,0.0673,0.0654,0.0489,0.0476,0.0454,0.4733,0.9817,0.9764,0.0664,0.0721,0.0712,0.0464,0.0498,0.0475,0.0479,0.0487,0.0472,0.0508,1.5146,1.5534,0.0496,0.0509,0.0574,0.0441,0.0454,0.0456,0.0459,0.0462,0.045,0.491,0.0472,0.0479,0.0471,0.0486,0.0476,0.0463,0.0463,0.0453,0.0501,0.046,0.0457